File: HDPE_scan1.txt
Punto Numero:	Temperatura:	Heatflow:
1	  61.0	    0.099
4	  61.0	    0.105
7	  61.0	    0.132
10	  61.1	    0.187
13	  61.3	    0.234
16	  61.6	    0.259
19	  61.9	    0.254
22	  62.2	    0.220
25	  62.6	    0.162
28	  63.1	    0.082
31	  63.5	   -0.008
34	  64.0	   -0.101
37	  64.4	   -0.195
40	  64.9	   -0.284
43	  65.3	   -0.363
46	  65.8	   -0.429
49	  66.3	   -0.499
52	  66.7	   -0.555
55	  67.2	   -0.604
58	  67.7	   -0.644
61	  68.1	   -0.679
64	  68.6	   -0.711
67	  69.1	   -0.734
70	  69.6	   -0.757
73	  70.0	   -0.776
76	  70.5	   -0.791
79	  71.0	   -0.804
82	  71.5	   -0.816
85	  71.9	   -0.825
88	  72.4	   -0.832
91	  72.9	   -0.836
94	  73.4	   -0.839
97	  73.9	   -0.845
100	  74.4	   -0.849
103	  74.9	   -0.853
106	  75.3	   -0.857
109	  75.8	   -0.860
112	  76.3	   -0.864
115	  76.8	   -0.866
118	  77.3	   -0.870
121	  77.8	   -0.873
124	  78.3	   -0.876
127	  78.7	   -0.880
130	  79.2	   -0.884
133	  79.7	   -0.885
136	  80.2	   -0.888
139	  80.7	   -0.890
142	  81.2	   -0.894
145	  81.7	   -0.897
148	  82.1	   -0.900
151	  82.6	   -0.903
154	  83.1	   -0.908
157	  83.6	   -0.912
160	  84.1	   -0.917
163	  84.6	   -0.922
166	  85.1	   -0.926
169	  85.6	   -0.930
172	  86.0	   -0.933
175	  86.5	   -0.937
178	  87.0	   -0.939
181	  87.5	   -0.943
184	  88.0	   -0.948
187	  88.5	   -0.954
190	  89.0	   -0.959
193	  89.5	   -0.964
196	  90.0	   -0.970
199	  90.5	   -0.976
202	  91.0	   -0.981
205	  91.5	   -0.986
208	  92.0	   -0.990
211	  92.4	   -0.994
214	  93.0	   -0.998
217	  93.4	   -1.002
220	  93.9	   -1.007
223	  94.4	   -1.014
226	  94.9	   -1.020
229	  95.4	   -1.026
232	  95.9	   -1.032
235	  96.4	   -1.040
238	  96.9	   -1.046
241	  97.4	   -1.053
244	  97.9	   -1.058
247	  98.3	   -1.066
250	  98.8	   -1.072
253	  99.3	   -1.079
256	  99.8	   -1.085
259	 100.3	   -1.091
262	 100.8	   -1.098
265	 101.3	   -1.107
268	 101.8	   -1.116
271	 102.3	   -1.126
274	 102.8	   -1.135
277	 103.3	   -1.146
280	 103.8	   -1.155
283	 104.3	   -1.165
286	 104.8	   -1.176
289	 105.3	   -1.187
292	 105.8	   -1.198
295	 106.2	   -1.210
298	 106.7	   -1.224
301	 107.2	   -1.238
304	 107.7	   -1.252
307	 108.2	   -1.258
310	 108.7	   -1.281
313	 109.2	   -1.297
316	 109.7	   -1.314
319	 110.2	   -1.330
322	 110.7	   -1.348
325	 111.2	   -1.366
328	 111.7	   -1.388
331	 112.2	   -1.410
334	 112.7	   -1.434
337	 113.2	   -1.459
340	 113.6	   -1.484
343	 114.1	   -1.514
346	 114.7	   -1.547
349	 115.1	   -1.580
352	 115.6	   -1.620
355	 116.1	   -1.661
358	 116.6	   -1.702
361	 117.1	   -1.747
364	 117.6	   -1.794
367	 118.1	   -1.845
370	 118.6	   -1.901
373	 119.0	   -1.962
376	 119.5	   -2.027
379	 120.0	   -2.089
382	 120.5	   -2.173
385	 121.0	   -2.260
388	 121.5	   -2.354
391	 122.0	   -2.458
394	 122.4	   -2.567
397	 123.0	   -2.687
400	 123.4	   -2.819
403	 123.8	   -2.961
406	 124.3	   -3.116
409	 124.8	   -3.284
412	 125.3	   -3.459
415	 125.7	   -3.654
418	 126.2	   -3.872
421	 126.7	   -4.118
424	 127.1	   -4.396
427	 127.6	   -4.714
430	 128.0	   -5.069
433	 128.5	   -5.451
436	 128.9	   -5.843
439	 129.3	   -6.246
442	 129.8	   -6.679
445	 130.2	   -7.105
448	 130.6	   -7.512
451	 131.1	   -7.865
454	 131.5	   -8.140
457	 132.0	   -8.288
460	 132.5	   -8.285
463	 133.0	   -8.122
466	 133.6	   -7.779
469	 134.2	   -7.230
472	 134.8	   -6.451
475	 135.4	   -5.580
478	 136.1	   -4.748
481	 136.7	   -4.012
484	 137.2	   -3.392
487	 137.8	   -2.884
490	 138.4	   -2.471
493	 138.9	   -2.141
496	 139.4	   -1.868
499	 140.0	   -1.649
502	 140.5	   -1.476
505	 141.0	   -1.337
508	 141.6	   -1.223
511	 142.0	   -1.132
514	 142.6	   -1.057
517	 143.1	   -0.998
520	 143.6	   -0.949
523	 144.1	   -0.911
526	 144.6	   -0.880
529	 145.1	   -0.854
532	 145.6	   -0.835
535	 146.1	   -0.820
538	 146.6	   -0.806
541	 147.1	   -0.793
544	 147.6	   -0.783
547	 148.1	   -0.775
550	 148.6	   -0.769
553	 149.1	   -0.764
556	 149.6	   -0.759
559	 150.1	   -0.755
562	 150.6	   -0.752
565	 151.1	   -0.751
568	 151.6	   -0.749
571	 152.1	   -0.746
574	 152.6	   -0.743
577	 153.1	   -0.740
580	 153.6	   -0.738
583	 154.1	   -0.738
586	 154.6	   -0.739
589	 155.1	   -0.733
592	 155.6	   -0.733
595	 156.1	   -0.732
598	 156.5	   -0.731
601	 157.0	   -0.730
604	 157.5	   -0.729
607	 158.1	   -0.726
610	 158.6	   -0.724
613	 159.0	   -0.723
616	 159.5	   -0.723
617	 159.7	   -0.724